#XPS-spectrum

#Date/time: 	2018-12-14__19-59-13


#AK pressure: 	3,16E-8 	mbar
#Pass energy: 	100.0 	eV
#Volt. bias: 	0.0 	V
#Volt. lens: 	-15.0 	V
#Counttime: 	200.0 	ms
#Vor: 	16.0 	V
#Nach: 	5.0 	V
#slope: 	0.613 	V/s
#offset: 	-48.850 	V


#Slope: 	0.0 	mV/s
#Counttime: 	200.0 	ms




#E_k 	 cps 	 Analyser 	 V_hemi 	 V_hemo 	 E_Pass 	 t_meas


1580.93	000377	-1507.97	-1518.77	072.96
1580.10	000395	-1507.15	-1517.95	072.96
1579.44	000341	-1506.49	-1517.29	072.96
1578.77	000386	-1505.82	-1516.62	072.96
1577.92	000377	-1504.97	-1515.77	072.96
1576.93	000455	-1503.98	-1514.78	072.96
1575.91	000436	-1502.96	-1513.76	072.96
1575.00	000327	-1502.05	-1512.85	072.96
1574.20	000332	-1501.24	-1512.04	072.96
1573.40	000377	-1500.44	-1511.24	072.96
1572.55	000432	-1499.60	-1510.40	072.96
1571.68	000391	-1498.73	-1509.53	072.96
1570.79	000400	-1497.84	-1508.64	072.96
1569.88	000405	-1496.92	-1507.72	072.96
1568.97	000468	-1496.01	-1506.81	072.96
1568.07	000409	-1495.11	-1505.91	072.96
1567.19	000436	-1494.24	-1505.04	072.96
1566.33	000341	-1493.37	-1504.17	072.96
1565.44	000364	-1492.48	-1503.28	072.96
1564.55	000414	-1491.59	-1502.39	072.96
1563.68	000359	-1490.72	-1501.52	072.96
1562.81	000405	-1489.85	-1500.65	072.96
1561.90	000455	-1488.94	-1499.74	072.96
1560.97	000455	-1488.02	-1498.82	072.96
1560.08	000441	-1487.12	-1497.92	072.96
1559.21	000427	-1486.25	-1497.05	072.96
1558.36	000445	-1485.41	-1496.21	072.96
1557.48	000395	-1484.53	-1495.33	072.96
1556.60	000527	-1483.65	-1494.45	072.96
1555.74	000382	-1482.78	-1493.58	072.96
1554.89	000382	-1481.93	-1492.73	072.96
1553.99	000400	-1481.03	-1491.83	072.96
1553.05	000405	-1480.10	-1490.90	072.96
1552.13	000468	-1479.17	-1489.97	072.96
1551.21	000455	-1478.26	-1489.06	072.96
1550.40	000427	-1477.44	-1488.24	072.96
1549.55	000359	-1476.59	-1487.39	072.96
1548.66	000405	-1475.71	-1486.51	072.96
1547.77	000414	-1474.81	-1485.61	072.96
1546.88	000409	-1473.93	-1484.73	072.96
1545.97	000414	-1473.02	-1483.82	072.96
1545.08	000423	-1472.13	-1482.93	072.96
1544.21	000414	-1471.25	-1482.05	072.96
1543.34	000386	-1470.39	-1481.19	072.96
1542.47	000500	-1469.51	-1480.31	072.96
1541.59	000436	-1468.63	-1479.43	072.96
1540.72	000468	-1467.76	-1478.56	072.96
1539.87	000473	-1466.91	-1477.71	072.96
1539.01	000359	-1466.05	-1476.85	072.96
1538.08	000409	-1465.13	-1475.93	072.96
1537.16	000441	-1464.20	-1475.00	072.96
1536.24	000500	-1463.28	-1474.08	072.96
1535.37	000459	-1462.41	-1473.21	072.96
1534.50	000518	-1461.55	-1472.35	072.96
1533.62	000500	-1460.67	-1471.47	072.96
1532.75	000423	-1459.80	-1470.60	072.96
1531.89	000455	-1458.94	-1469.74	072.96
1531.02	000468	-1458.06	-1468.86	072.96
1530.09	000450	-1457.14	-1467.94	072.96
1529.17	000477	-1456.21	-1467.01	072.96
1528.29	000505	-1455.34	-1466.14	072.96
1527.43	000541	-1454.48	-1465.28	072.96
1526.56	000609	-1453.60	-1464.40	072.96
1525.68	000827	-1452.73	-1463.53	072.96
1524.81	001282	-1451.86	-1462.66	072.96
1523.96	001209	-1451.01	-1461.81	072.96
1523.09	001023	-1450.13	-1460.93	072.96
1522.16	001091	-1449.20	-1460.00	072.96
1521.24	001036	-1448.29	-1459.09	072.96
1520.36	000800	-1447.40	-1458.20	072.96
1519.50	000777	-1446.54	-1457.34	072.96
1518.62	000614	-1445.66	-1456.46	072.96
1517.73	000545	-1444.78	-1455.58	072.96
1516.88	000514	-1443.92	-1454.72	072.96
1516.02	000659	-1443.06	-1453.86	072.96
1515.14	000577	-1442.19	-1452.99	072.96
1514.21	000573	-1441.25	-1452.05	072.96
1513.31	000559	-1440.35	-1451.15	072.96
1512.43	000655	-1439.48	-1450.28	072.96
1511.58	000727	-1438.62	-1449.42	072.96
1510.72	000645	-1437.76	-1448.56	072.96
1509.84	000595	-1436.88	-1447.68	072.96
1508.97	000695	-1436.02	-1446.82	072.96
1508.12	000750	-1435.16	-1445.96	072.96
1507.25	000773	-1434.29	-1445.09	072.96
1506.31	000759	-1433.35	-1444.15	072.96
1505.37	000800	-1432.42	-1443.22	072.96
1504.48	000682	-1431.52	-1442.32	072.96
1503.62	000686	-1430.67	-1441.47	072.96
1502.74	000677	-1429.79	-1440.59	072.96
1501.85	000627	-1428.90	-1439.70	072.96
1500.98	000709	-1428.02	-1438.82	072.96
1500.12	000573	-1427.16	-1437.96	072.96
1499.23	000673	-1426.27	-1437.07	072.96
1498.30	000682	-1425.35	-1436.15	072.96
1497.40	000686	-1424.44	-1435.24	072.96
1496.51	000777	-1423.56	-1434.36	072.96
1495.65	000727	-1422.70	-1433.50	072.96
1494.78	000636	-1421.83	-1432.63	072.96
1493.91	000600	-1420.95	-1431.75	072.96
1493.04	000686	-1420.09	-1430.89	072.96
1492.19	000677	-1419.23	-1430.03	072.96
1491.28	000727	-1418.32	-1429.12	072.96
1490.36	000636	-1417.40	-1428.20	072.96
1489.45	000641	-1416.49	-1427.29	072.96
1488.57	000641	-1415.62	-1426.42	072.96
1487.71	000668	-1414.76	-1425.56	072.96
1486.83	000745	-1413.87	-1424.67	072.96
1485.95	000686	-1413.00	-1423.80	072.96
1485.09	000805	-1412.13	-1422.93	072.96
1484.23	000700	-1411.27	-1422.07	072.96
1483.33	000691	-1410.38	-1421.18	072.96
1482.40	000686	-1409.45	-1420.25	072.96
1481.51	000723	-1408.56	-1419.36	072.96
1480.66	000736	-1407.70	-1418.50	072.96
1479.80	000850	-1406.85	-1417.65	072.96
1478.92	000795	-1405.97	-1416.77	072.96
1478.06	000636	-1405.10	-1415.90	072.96
1477.20	000777	-1404.24	-1415.04	072.96
1476.35	000845	-1403.40	-1414.20	072.96
1475.44	000732	-1402.48	-1413.28	072.96
1474.50	000795	-1401.54	-1412.34	072.96
1473.59	000841	-1400.63	-1411.43	072.96
1472.72	000745	-1399.76	-1410.56	072.96
1471.85	000977	-1398.90	-1409.70	072.96
1470.96	000995	-1398.01	-1408.81	072.96
1470.08	000945	-1397.13	-1407.93	072.96
1469.23	000914	-1396.27	-1407.07	072.96
1468.36	000818	-1395.41	-1406.21	072.96
1467.45	000773	-1394.49	-1405.29	072.96
1466.52	000827	-1393.57	-1404.37	072.96
1465.63	000845	-1392.67	-1403.47	072.96
1464.77	000782	-1391.82	-1402.62	072.96
1463.92	000873	-1390.96	-1401.76	072.96
1463.04	000859	-1390.08	-1400.88	072.96
1462.17	000864	-1389.22	-1400.02	072.96
1461.30	000814	-1388.35	-1399.15	072.96
1460.46	000909	-1387.50	-1398.30	072.96
1459.53	000732	-1386.57	-1397.37	072.96
1458.60	000764	-1385.65	-1396.45	072.96
1457.71	000927	-1384.75	-1395.55	072.96
1456.85	000941	-1383.89	-1394.69	072.96
1455.99	001086	-1383.03	-1393.83	072.96
1455.10	001141	-1382.15	-1392.95	072.96
1454.23	001295	-1381.27	-1392.07	072.96
1453.37	001436	-1380.42	-1391.22	072.96
1452.50	001423	-1379.55	-1390.35	072.96
1451.59	001305	-1378.64	-1389.44	072.96
1450.69	001314	-1377.74	-1388.54	072.96
1449.81	001450	-1376.85	-1387.65	072.96
1448.93	001305	-1375.98	-1386.78	072.96
1448.08	001095	-1375.13	-1385.93	072.96
1447.21	001200	-1374.25	-1385.05	072.96
1446.36	001255	-1373.40	-1384.20	072.96
1445.50	001741	-1372.55	-1383.35	072.96
1444.63	004136	-1371.67	-1382.47	072.96
1443.67	006964	-1370.72	-1381.52	072.96
1442.74	003755	-1369.79	-1380.59	072.96
1441.85	002605	-1368.90	-1379.70	072.96
1440.98	003686	-1368.03	-1378.83	072.96
1440.10	005959	-1367.15	-1377.95	072.96
1439.21	003923	-1366.26	-1377.06	072.96
1438.35	002705	-1365.39	-1376.19	072.96
1437.49	002173	-1364.54	-1375.34	072.96
1436.60	001955	-1363.65	-1374.45	072.96
1435.66	001959	-1362.71	-1373.51	072.96
1434.76	001805	-1361.80	-1372.60	072.96
1433.89	002005	-1360.93	-1371.73	072.96
1433.03	001759	-1360.08	-1370.88	072.96
1432.17	001741	-1359.21	-1370.01	072.96
1431.29	001877	-1358.34	-1369.14	072.96
1430.43	002023	-1357.47	-1368.27	072.96
1429.57	002041	-1356.61	-1367.41	072.96
1428.68	002014	-1355.73	-1366.53	072.96
1427.75	002077	-1354.80	-1365.60	072.96
1426.84	002114	-1353.88	-1364.68	072.96
1425.95	002118	-1352.99	-1363.79	072.96
1425.09	002255	-1352.13	-1362.93	072.96
1424.21	002200	-1351.26	-1362.06	072.96
1423.33	002259	-1350.38	-1361.18	072.96
1422.46	002164	-1349.51	-1360.31	072.96
1421.61	002282	-1348.65	-1359.45	072.96
1420.72	002277	-1347.76	-1358.56	072.96
1419.80	002368	-1346.85	-1357.65	072.96
1418.89	002400	-1345.93	-1356.73	072.96
1418.01	002545	-1345.05	-1355.85	072.96
1417.17	002427	-1344.21	-1355.01	072.96
1416.29	002500	-1343.34	-1354.14	072.96
1415.41	002409	-1342.46	-1353.26	072.96
1414.56	002355	-1341.61	-1352.41	072.96
1413.71	002459	-1340.76	-1351.56	072.96
1412.82	002441	-1339.86	-1350.66	072.96
1411.88	002414	-1338.92	-1349.72	072.96
1410.96	002214	-1338.01	-1348.81	072.96
1410.07	002382	-1337.11	-1347.91	072.96
1409.21	002405	-1336.26	-1347.06	072.96
1408.33	002241	-1335.37	-1346.17	072.96
1407.46	002518	-1334.50	-1345.30	072.96
1406.59	002555	-1333.64	-1344.44	072.96
1405.72	002368	-1332.77	-1343.57	072.96
1404.81	002345	-1331.85	-1342.65	072.96
1403.89	002273	-1330.93	-1341.73	072.96
1403.00	002332	-1330.04	-1340.84	072.96
1402.14	002450	-1329.19	-1339.99	072.96
1401.28	002282	-1328.32	-1339.12	072.96
1400.40	002550	-1327.44	-1338.24	072.96
1399.52	002314	-1326.57	-1337.37	072.96
1398.67	002405	-1325.71	-1336.51	072.96
1397.81	002273	-1324.85	-1335.65	072.96
1396.89	002386	-1323.94	-1334.74	072.96
1395.97	002368	-1323.02	-1333.82	072.96
1395.09	002305	-1322.13	-1332.93	072.96
1394.22	002355	-1321.26	-1332.06	072.96
1393.35	002423	-1320.39	-1331.19	072.96
1392.46	002600	-1319.50	-1330.30	072.96
1391.60	002577	-1318.64	-1329.44	072.96
1390.74	002473	-1317.79	-1328.59	072.96
1389.88	002750	-1316.93	-1327.73	072.96
1388.97	002909	-1316.02	-1326.82	072.96
1388.05	002645	-1315.09	-1325.89	072.96
1387.17	002695	-1314.22	-1325.02	072.96
1386.31	002714	-1313.35	-1324.15	072.96
1385.47	002677	-1312.51	-1323.31	072.96
1384.65	002795	-1311.69	-1322.49	072.96
1383.77	002741	-1310.81	-1321.61	072.96
1382.93	002618	-1309.97	-1320.77	072.96
1382.07	002600	-1309.11	-1319.91	072.96
1381.13	002568	-1308.18	-1318.98	072.96
1380.19	002368	-1307.24	-1318.04	072.96
1379.29	002500	-1306.33	-1317.13	072.96
1378.43	002445	-1305.47	-1316.27	072.96
1377.56	002418	-1304.61	-1315.41	072.96
1376.66	002391	-1303.71	-1314.51	072.96
1375.80	002445	-1302.84	-1313.64	072.96
1374.93	002264	-1301.97	-1312.77	072.96
1374.07	002500	-1301.11	-1311.91	072.96
1373.15	002550	-1300.19	-1310.99	072.96
1372.23	002464	-1299.27	-1310.07	072.96
1371.34	002368	-1298.38	-1309.18	072.96
1370.48	002514	-1297.53	-1308.33	072.96
1369.62	002409	-1296.66	-1307.46	072.96
1368.74	002191	-1295.78	-1306.58	072.96
1367.87	002659	-1294.92	-1305.72	072.96
1367.01	002373	-1294.05	-1304.85	072.96
1366.15	002391	-1293.19	-1303.99	072.96
1365.22	002464	-1292.26	-1303.06	072.96
1364.31	002268	-1291.35	-1302.15	072.96
1363.41	002468	-1290.46	-1301.26	072.96
1362.55	002495	-1289.59	-1300.39	072.96
1361.68	002464	-1288.72	-1299.52	072.96
1360.79	002536	-1287.84	-1298.64	072.96
1359.93	002441	-1286.97	-1297.77	072.96
1359.07	002332	-1286.12	-1296.92	072.96
1358.18	002564	-1285.22	-1296.02	072.96
1357.26	002486	-1284.31	-1295.11	072.96
1356.36	002405	-1283.40	-1294.20	072.96
1355.48	002195	-1282.53	-1293.33	072.96
1354.62	002400	-1281.67	-1292.47	072.96
1353.76	002568	-1280.80	-1291.60	072.96
1352.89	002509	-1279.93	-1290.73	072.96
1352.02	002545	-1279.07	-1289.87	072.96
1351.18	002427	-1278.22	-1289.02	072.96
1350.27	002555	-1277.32	-1288.12	072.96
1349.34	002468	-1276.39	-1287.19	072.96
1348.43	002464	-1275.47	-1286.27	072.96
1347.55	002586	-1274.60	-1285.40	072.96
1346.69	002264	-1273.74	-1284.54	072.96
1345.82	002373	-1272.86	-1283.66	072.96
1344.93	002345	-1271.98	-1282.78	072.96
1344.06	002373	-1271.11	-1281.91	072.96
1343.22	002450	-1270.26	-1281.06	072.96
1342.32	002436	-1269.36	-1280.16	072.96
1341.40	002473	-1268.44	-1279.24	072.96
1340.49	002450	-1267.54	-1278.34	072.96
1339.64	002427	-1266.68	-1277.48	072.96
1338.78	002227	-1265.82	-1276.62	072.96
1337.90	002345	-1264.95	-1275.75	072.96
1337.02	002386	-1264.07	-1274.87	072.96
1336.17	002468	-1263.21	-1274.01	072.96
1335.33	002332	-1262.37	-1273.17	072.96
1334.43	002332	-1261.47	-1272.27	072.96
1333.51	002509	-1260.55	-1271.35	072.96
1332.60	002282	-1259.64	-1270.44	072.96
1331.73	002550	-1258.77	-1269.57	072.96
1330.86	002468	-1257.91	-1268.71	072.96
1329.99	002555	-1257.03	-1267.83	072.96
1329.11	002473	-1256.16	-1266.96	072.96
1328.25	002309	-1255.29	-1266.09	072.96
1327.40	002386	-1254.44	-1265.24	072.96
1326.50	002477	-1253.54	-1264.34	072.96
1325.58	002568	-1252.63	-1263.43	072.96
1324.69	002500	-1251.73	-1262.53	072.96
1323.83	002536	-1250.87	-1261.67	072.96
1322.97	002527	-1250.02	-1260.82	072.96
1322.10	002500	-1249.15	-1259.95	072.96
1321.24	002486	-1248.28	-1259.08	072.96
1320.38	002345	-1247.43	-1258.23	072.96
1319.51	002495	-1246.56	-1257.36	072.96
1318.57	002282	-1245.62	-1256.42	072.96
1317.64	002550	-1244.69	-1255.49	072.96
1316.73	002391	-1243.77	-1254.57	072.96
1315.85	002327	-1242.90	-1253.70	072.96
1314.99	002245	-1242.03	-1252.83	072.96
1314.12	002473	-1241.17	-1251.97	072.96
1313.24	002464	-1240.29	-1251.09	072.96
1312.38	002391	-1239.42	-1250.22	072.96
1311.50	002700	-1238.54	-1249.34	072.96
1310.57	002523	-1237.61	-1248.41	072.96
1309.65	002382	-1236.70	-1247.50	072.96
1308.77	002282	-1235.82	-1246.62	072.96
1307.91	002300	-1234.96	-1245.76	072.96
1307.05	002559	-1234.09	-1244.89	072.96
1306.17	002305	-1233.21	-1244.01	072.96
1305.30	002514	-1232.34	-1243.14	072.96
1304.45	002464	-1231.49	-1242.29	072.96
1303.58	002327	-1230.62	-1241.42	072.96
1302.64	002386	-1229.69	-1240.49	072.96
1301.72	002486	-1228.76	-1239.56	072.96
1300.83	002314	-1227.87	-1238.67	072.96
1299.96	002523	-1227.01	-1237.81	072.96
1299.09	002477	-1226.14	-1236.94	072.96
1298.20	002486	-1225.25	-1236.05	072.96
1297.33	002336	-1224.38	-1235.18	072.96
1296.49	002668	-1223.53	-1234.33	072.96
1295.61	002082	-1222.65	-1233.45	072.96
1294.68	002268	-1221.72	-1232.52	072.96
1293.76	002450	-1220.81	-1231.61	072.96
1292.89	002414	-1219.93	-1230.73	072.96
1292.03	002505	-1219.08	-1229.88	072.96
1291.17	002559	-1218.21	-1229.01	072.96
1290.29	002423	-1217.34	-1228.14	072.96
1289.43	002509	-1216.47	-1227.27	072.96
1288.58	002364	-1215.63	-1226.43	072.96
1287.70	002450	-1214.74	-1225.54	072.96
1286.77	002641	-1213.81	-1224.61	072.96
1285.85	002205	-1212.90	-1223.70	072.96
1284.95	002477	-1212.00	-1222.80	072.96
1284.09	002373	-1211.14	-1221.94	072.96
1283.22	002564	-1210.26	-1221.06	072.96
1282.34	002432	-1209.38	-1220.18	072.96
1281.47	002768	-1208.51	-1219.31	072.96
1280.61	002700	-1207.66	-1218.46	072.96
1279.72	002536	-1206.76	-1217.56	072.96
1278.79	002591	-1205.83	-1216.63	072.96
1277.89	002482	-1204.94	-1215.74	072.96
1277.01	002305	-1204.05	-1214.85	072.96
1276.15	002464	-1203.19	-1213.99	072.96
1275.30	002441	-1202.34	-1213.14	072.96
1274.42	002368	-1201.46	-1212.26	072.96
1273.55	002473	-1200.60	-1211.40	072.96
1272.69	002455	-1199.74	-1210.54	072.96
1271.80	002536	-1198.84	-1209.64	072.96
1270.87	002518	-1197.92	-1208.72	072.96
1269.98	002373	-1197.02	-1207.82	072.96
1269.09	002455	-1196.14	-1206.94	072.96
1268.22	002455	-1195.27	-1206.07	072.96
1267.34	002618	-1194.38	-1205.18	072.96
1266.46	002405	-1193.51	-1204.31	072.96
1265.60	002477	-1192.65	-1203.45	072.96
1264.75	002523	-1191.80	-1202.60	072.96
1263.84	002541	-1190.89	-1201.69	072.96
1262.92	002468	-1189.97	-1200.77	072.96
1262.04	002509	-1189.09	-1199.89	072.96
1261.18	002582	-1188.23	-1199.03	072.96
1260.33	002536	-1187.38	-1198.18	072.96
1259.46	002600	-1186.50	-1197.30	072.96
1258.58	002350	-1185.62	-1196.42	072.96
1257.73	002823	-1184.78	-1195.58	072.96
1256.88	002527	-1183.92	-1194.72	072.96
1255.96	002568	-1183.00	-1193.80	072.96
1255.03	002527	-1182.07	-1192.87	072.96
1254.11	002350	-1181.15	-1191.95	072.96
1253.23	002723	-1180.28	-1191.08	072.96
1252.37	002332	-1179.42	-1190.22	072.96
1251.48	002582	-1178.52	-1189.32	072.96
1250.60	002518	-1177.64	-1188.44	072.96
1249.74	002614	-1176.79	-1187.59	072.96
1248.88	002395	-1175.92	-1186.72	072.96
1247.96	002573	-1175.00	-1185.80	072.96
1247.03	002623	-1174.07	-1184.87	072.96
1246.14	002668	-1173.19	-1183.99	072.96
1245.27	002605	-1172.32	-1183.12	072.96
1244.43	002577	-1171.47	-1182.27	072.96
1243.56	002914	-1170.60	-1181.40	072.96
1242.68	002782	-1169.72	-1180.52	072.96
1241.81	002732	-1168.86	-1179.66	072.96
1240.95	002618	-1168.00	-1178.80	072.96
1240.04	002564	-1167.08	-1177.88	072.96
1239.11	002586	-1166.16	-1176.96	072.96
1238.20	002695	-1165.25	-1176.05	072.96
1237.34	002468	-1164.39	-1175.19	072.96
1236.48	002482	-1163.52	-1174.32	072.96
1235.60	002468	-1162.65	-1173.45	072.96
1234.72	002500	-1161.77	-1172.57	072.96
1233.86	002527	-1160.91	-1171.71	072.96
1233.00	002523	-1160.04	-1170.84	072.96
1232.08	002418	-1159.12	-1169.92	072.96
1231.17	002568	-1158.22	-1169.02	072.96
1230.29	002509	-1157.33	-1168.13	072.96
1229.43	002455	-1156.47	-1167.27	072.96
1228.57	002536	-1155.61	-1166.41	072.96
1227.69	002545	-1154.74	-1165.54	072.96
1226.84	002491	-1153.88	-1164.68	072.96
1225.99	002486	-1153.04	-1163.84	072.96
1225.11	002559	-1152.15	-1162.95	072.96
1224.18	002555	-1151.22	-1162.02	072.96
1223.25	002614	-1150.30	-1161.10	072.96
1222.36	002627	-1149.40	-1160.20	072.96
1221.50	002655	-1148.54	-1159.34	072.96
1220.63	002518	-1147.68	-1158.48	072.96
1219.74	002364	-1146.78	-1157.58	072.96
1218.87	002491	-1145.92	-1156.72	072.96
1218.02	002600	-1145.07	-1155.87	072.96
1217.14	002718	-1144.18	-1154.98	072.96
1216.21	002536	-1143.25	-1154.05	072.96
1215.30	002614	-1142.35	-1153.15	072.96
1214.42	002759	-1141.47	-1152.27	072.96
1213.57	002673	-1140.62	-1151.42	072.96
1212.70	002545	-1139.74	-1150.54	072.96
1211.81	002691	-1138.86	-1149.66	072.96
1210.96	002559	-1138.01	-1148.81	072.96
1210.12	002650	-1137.16	-1147.96	072.96
1209.24	002782	-1136.28	-1147.08	072.96
1208.30	002855	-1135.35	-1146.15	072.96
1207.39	002618	-1134.43	-1145.23	072.96
1206.51	002595	-1133.56	-1144.36	072.96
1205.66	002827	-1132.71	-1143.51	072.96
1204.79	002755	-1131.84	-1142.64	072.96
1203.90	002709	-1130.95	-1141.75	072.96
1203.04	002827	-1130.08	-1140.88	072.96
1202.19	002945	-1129.23	-1140.03	072.96
1201.30	002755	-1128.35	-1139.15	072.96
1200.38	002855	-1127.42	-1138.22	072.96
1199.49	002841	-1126.53	-1137.33	072.96
1198.61	002791	-1125.65	-1136.45	072.96
1197.77	002832	-1124.82	-1135.62	072.96
1196.89	003059	-1123.94	-1134.74	072.96
1196.02	003223	-1123.06	-1133.86	072.96
1195.16	003377	-1122.21	-1133.01	072.96
1194.32	003614	-1121.36	-1132.16	072.96
1193.41	003982	-1120.45	-1131.25	072.96
1192.46	004068	-1119.51	-1130.31	072.96
1191.54	004086	-1118.59	-1129.39	072.96
1190.65	003986	-1117.70	-1128.50	072.96
1189.80	003777	-1116.84	-1127.64	072.96
1188.92	003664	-1115.96	-1126.76	072.96
1188.05	003395	-1115.09	-1125.89	072.96
1187.21	003300	-1114.26	-1125.06	072.96
1186.38	002995	-1113.42	-1124.22	072.96
1185.45	003250	-1112.50	-1123.30	072.96
1184.54	003414	-1111.58	-1122.38	072.96
1183.65	003395	-1110.69	-1121.49	072.96
1182.79	003195	-1109.83	-1120.63	072.96
1181.92	003250	-1108.97	-1119.77	072.96
1181.03	003359	-1108.08	-1118.88	072.96
1180.16	003382	-1107.21	-1118.01	072.96
1179.31	003436	-1106.36	-1117.16	072.96
1178.45	003382	-1105.50	-1116.30	072.96
1177.53	003495	-1104.58	-1115.38	072.96
1176.61	003991	-1103.65	-1114.45	072.96
1175.71	-000008	-1102.76	-1113.56	072.96
1174.85	004091	-1101.90	-1112.70	072.96
1173.98	004132	-1101.02	-1111.82	072.96
1173.09	003932	-1100.14	-1110.94	072.96
1172.22	003873	-1099.26	-1110.06	072.96
1171.37	003877	-1098.41	-1109.21	072.96
1170.51	003636	-1097.55	-1108.35	072.96
1169.58	003845	-1096.63	-1107.43	072.96
1168.66	003745	-1095.70	-1106.50	072.96
1167.77	003718	-1094.82	-1105.62	072.96
1166.92	003636	-1093.97	-1104.77	072.96
1166.07	003527	-1093.12	-1103.92	072.96
1165.19	003595	-1092.23	-1103.03	072.96
1164.32	003805	-1091.36	-1102.16	072.96
1163.47	003500	-1090.52	-1101.32	072.96
1162.60	003550	-1089.65	-1100.45	072.96
1161.67	003827	-1088.72	-1099.52	072.96
1160.74	003518	-1087.78	-1098.58	072.96
1159.84	003614	-1086.89	-1097.69	072.96
1158.97	003455	-1086.02	-1096.82	072.96
1158.11	003741	-1085.15	-1095.95	072.96
1157.22	003668	-1084.27	-1095.07	072.96
1156.35	003800	-1083.40	-1094.20	072.96
1155.49	003536	-1082.54	-1093.34	072.96
1154.61	003759	-1081.66	-1092.46	072.96
1153.70	003686	-1080.74	-1091.54	072.96
1152.78	003586	-1079.82	-1090.62	072.96
1151.89	003786	-1078.94	-1089.74	072.96
1151.05	003568	-1078.10	-1088.90	072.96
1150.19	003623	-1077.23	-1088.03	072.96
1149.31	003686	-1076.35	-1087.15	072.96
